% AIRS Jan04 fast model fitting results over the 48 training
% profiles at 6 angles.  BT is the mean of the 288 (=48*6)
% BTobs spectra, RMS is the RMS of BTobs-BTcal, and amax is
% the maximum absolute value of BTobs-BTcal.
%
% Scott Hannon, 8 January 2004
%
% ID     freq      BT      RMS    amax
%----  --------  ------  ------  ------
    1   649.612  222.45  0.0193  0.0782
    2   649.851  221.10  0.0171  0.0828
    3   650.090  222.68  0.0187  0.0993
    4   650.328  230.48  0.0231  0.0924
    5   650.567  229.24  0.0205  0.0747
    6   650.807  222.44  0.0153  0.0540
    7   651.046  218.29  0.0180  0.0796
    8   651.285  217.30  0.0127  0.0633
    9   651.525  217.97  0.0078  0.0299
   10   651.765  226.07  0.0177  0.0723
   11   652.005  230.02  0.0163  0.0711
   12   652.245  223.36  0.0099  0.0382
   13   652.486  219.60  0.0138  0.0718
   14   652.727  218.14  0.0197  0.1181
   15   652.968  217.46  0.0126  0.0837
   16   653.209  223.12  0.0129  0.0828
   17   653.450  230.19  0.0162  0.1063
   18   653.691  225.26  0.0126  0.0708
   19   653.933  220.44  0.0108  0.0466
   20   654.175  218.47  0.0147  0.0517
   21   654.417  216.90  0.0078  0.0378
   22   654.659  220.51  0.0104  0.0471
   23   654.902  229.65  0.0165  0.1108
   24   655.144  228.13  0.0162  0.1097
   25   655.387  221.52  0.0079  0.0283
   26   655.630  219.97  0.0141  0.0571
   27   655.873  217.69  0.0125  0.0663
   28   656.116  218.83  0.0094  0.0317
   29   656.360  227.33  0.0167  0.0938
   30   656.604  229.81  0.0165  0.1035
   31   656.848  222.52  0.0111  0.0506
   32   657.092  220.46  0.0106  0.0417
   33   657.336  218.55  0.0148  0.0582
   34   657.581  217.72  0.0101  0.0516
   35   657.825  224.58  0.0142  0.0722
   36   658.070  230.11  0.0183  0.1200
   37   658.315  224.44  0.0118  0.0568
   38   658.561  220.03  0.0084  0.0357
   39   658.806  218.39  0.0109  0.0402
   40   659.052  217.19  0.0095  0.0455
   41   659.298  221.88  0.0140  0.0648
   42   659.544  229.34  0.0183  0.1200
   43   659.790  226.53  0.0148  0.0930
   44   660.037  220.47  0.0101  0.0458
   45   660.283  219.19  0.0126  0.0648
   46   660.530  217.54  0.0139  0.0582
   47   660.777  219.83  0.0099  0.0393
   48   661.024  227.25  0.0176  0.1179
   49   661.272  227.46  0.0173  0.1131
   50   661.519  220.48  0.0112  0.0448
   51   661.767  219.01  0.0117  0.0440
   52   662.015  218.71  0.0152  0.0586
   53   662.263  224.50  0.0195  0.1076
   54   662.512  234.68  0.0245  0.1252
   55   662.761  235.98  0.0166  0.0833
   56   663.009  230.86  0.0162  0.0696
   57   663.258  226.47  0.0188  0.0825
   58   663.508  223.72  0.0232  0.1015
   59   663.757  222.29  0.0240  0.1109
   60   664.007  223.75  0.0177  0.0773
   61   664.256  226.60  0.0183  0.1046
   62   664.506  223.81  0.0156  0.0878
   63   664.757  225.40  0.0178  0.0888
   64   665.007  226.62  0.0151  0.0491
   65   665.258  224.38  0.0166  0.0537
   66   665.509  222.71  0.0152  0.0590
   67   665.759  224.38  0.0133  0.0770
   68   666.011  222.00  0.0106  0.0615
   69   666.262  218.31  0.0059  0.0250
   70   666.514  219.85  0.0090  0.0369
   71   666.766  222.28  0.0131  0.0555
   72   667.018  225.23  0.0090  0.0408
   73   667.270  236.31  0.0328  0.1503
   74   667.522  247.91  0.0240  0.1540
   75   667.775  249.43  0.0275  0.1221
   76   668.028  248.62  0.0327  0.1328
   77   668.281  247.67  0.0324  0.1619
   78   668.534  245.26  0.0372  0.1502
   79   668.787  241.19  0.0356  0.1335
   80   669.041  237.50  0.0293  0.1291
   81   669.295  235.28  0.0329  0.1750
   82   669.549  235.10  0.0291  0.1272
   83   669.803  234.29  0.0259  0.0938
   84   670.057  228.64  0.0333  0.1169
   85   670.312  224.18  0.0325  0.1029
   86   670.567  221.84  0.0284  0.0946
   87   670.822  221.70  0.0263  0.0995
   88   671.077  226.67  0.0237  0.1068
   89   671.333  231.15  0.0241  0.1333
   90   671.588  225.70  0.0230  0.0760
   91   671.844  220.26  0.0192  0.0581
   92   672.100  218.01  0.0145  0.0429
   93   672.357  219.60  0.0112  0.0385
   94   672.613  225.51  0.0184  0.1119
   95   672.870  231.25  0.0230  0.1771
   96   673.127  227.06  0.0172  0.0850
   97   673.384  221.16  0.0100  0.0362
   98   673.641  217.73  0.0124  0.0553
   99   673.899  218.58  0.0082  0.0275
  100   674.156  224.70  0.0125  0.0748
  101   674.414  231.11  0.0200  0.1581
  102   674.672  227.60  0.0180  0.0922
  103   674.931  220.86  0.0128  0.0542
  104   675.189  217.38  0.0092  0.0377
  105   675.448  218.23  0.0089  0.0350
  106   675.707  224.04  0.0119  0.0558
  107   675.966  231.16  0.0187  0.1426
  108   676.226  228.55  0.0166  0.1107
  109   676.485  221.43  0.0121  0.0556
  110   676.745  217.36  0.0091  0.0307
  111   677.005  217.86  0.0080  0.0286
  112   677.265  223.07  0.0128  0.0601
  113   677.526  230.95  0.0193  0.1320
  114   677.786  229.25  0.0167  0.0980
  115   678.047  221.64  0.0120  0.0528
  116   678.308  217.46  0.0108  0.0403
  117   678.569  217.98  0.0108  0.0488
  118   678.831  222.95  0.0142  0.0453
  119   679.093  231.31  0.0254  0.0956
  120   679.355  230.36  0.0222  0.1010
  121   679.617  222.07  0.0286  0.1247
  122   679.879  217.46  0.0096  0.0390
  123   680.141  217.74  0.0102  0.0395
  124   680.404  221.75  0.0107  0.0480
  125   680.667  230.55  0.0154  0.0739
  126   680.930  229.90  0.0168  0.0661
  127   681.194  221.99  0.0139  0.0589
  128   681.457  217.45  0.0140  0.0554
  129   681.721  217.38  0.0138  0.0551
  130   681.985  220.68  0.0105  0.0396
  131   687.601  219.30  0.0138  0.0485
  132   687.871  217.03  0.0098  0.0394
  133   688.140  216.20  0.0176  0.0787
  134   688.410  218.85  0.0210  0.0838
  135   688.680  228.62  0.0294  0.0923
  136   688.950  227.70  0.0402  0.1463
  137   689.220  221.54  0.0393  0.1292
  138   689.491  218.76  0.0351  0.1293
  139   689.762  217.61  0.0302  0.1096
  140   690.033  219.63  0.0187  0.0654
  141   690.304  227.23  0.0176  0.0688
  142   690.576  224.75  0.0204  0.0910
  143   690.847  218.90  0.0185  0.0621
  144   691.119  217.09  0.0124  0.0450
  145   691.391  216.58  0.0169  0.0656
  146   691.664  219.17  0.0138  0.0530
  147   691.936  226.31  0.0170  0.0567
  148   692.209  223.73  0.0213  0.0788
  149   692.482  219.19  0.0174  0.0787
  150   692.755  217.50  0.0124  0.0604
  151   693.029  216.66  0.0185  0.0751
  152   693.302  219.09  0.0086  0.0323
  153   693.576  224.59  0.0110  0.0477
  154   693.851  222.14  0.0173  0.0595
  155   694.125  218.25  0.0330  0.2732
  156   694.400  217.17  0.0149  0.1008
  157   694.674  217.11  0.0131  0.0486
  158   694.949  219.46  0.0140  0.0675
  159   695.225  223.30  0.0141  0.0550
  160   695.500  220.90  0.0215  0.0906
  161   695.776  218.98  0.0224  0.0900
  162   696.052  218.12  0.0267  0.1519
  163   696.328  217.38  0.0124  0.0361
  164   696.604  219.97  0.0302  0.1095
  165   696.881  222.13  0.0149  0.0890
  166   697.158  220.04  0.0286  0.1200
  167   697.435  219.93  0.0255  0.1125
  168   697.712  219.19  0.0226  0.0944
  169   697.990  217.87  0.0207  0.0715
  170   698.267  220.13  0.0148  0.0556
  171   698.545  221.00  0.0184  0.0911
  172   698.823  219.48  0.0250  0.1182
  173   699.102  220.80  0.0293  0.1319
  174   699.381  220.21  0.0156  0.0763
  175   699.659  218.80  0.0103  0.0406
  176   699.939  220.31  0.0122  0.0631
  177   700.218  220.08  0.0133  0.0584
  178   700.497  219.61  0.0367  0.1614
  179   700.777  221.27  0.0462  0.1767
  180   701.057  221.02  0.0189  0.0826
  181   701.337  219.98  0.0186  0.0978
  182   701.618  220.40  0.0166  0.0956
  183   701.899  220.31  0.0371  0.1305
  184   702.180  221.09  0.0352  0.1348
  185   702.461  221.47  0.0278  0.1292
  186   702.742  221.83  0.0190  0.0980
  187   703.024  221.82  0.0271  0.1184
  188   703.306  221.68  0.0194  0.0926
  189   703.588  222.02  0.0330  0.2254
  190   703.870  224.02  0.0524  0.2437
  191   704.153  223.54  0.0891  0.2926
  192   704.436  224.56  0.0594  0.2370
  193   704.719  223.27  0.0434  0.2406
  194   705.002  221.44  0.0602  0.2019
  195   705.285  223.61  0.0502  0.3330
  196   705.569  225.08  0.0432  0.2177
  197   705.853  225.27  0.0366  0.2333
  198   706.137  227.59  0.0246  0.1718
  199   706.422  224.22  0.0555  0.3844
  200   706.706  223.45  0.0514  0.3857
  201   706.991  226.99  0.0405  0.2611
  202   707.276  225.06  0.0338  0.2072
  203   707.562  226.14  0.0487  0.2947
  204   707.847  229.32  0.0416  0.2144
  205   708.133  225.10  0.0681  0.4069
  206   708.419  226.49  0.0687  0.3605
  207   708.706  227.53  0.0803  0.4244
  208   708.992  225.28  0.0777  0.3100
  209   709.279  229.93  0.0445  0.2571
  210   709.566  230.60  0.0553  0.3401
  211   709.853  226.62  0.0724  0.3982
  212   710.141  229.72  0.0699  0.2544
  213   710.428  227.28  0.0591  0.2130
  214   710.716  228.41  0.0580  0.2306
  215   711.005  233.76  0.0401  0.1363
  216   711.293  230.00  0.0515  0.3822
  217   711.582  229.45  0.0794  0.3872
  218   711.871  230.65  0.0849  0.2652
  219   712.160  226.86  0.0378  0.1394
  220   712.449  235.44  0.0360  0.1745
  221   712.739  239.26  0.0495  0.2446
  222   713.029  231.60  0.0902  0.5549
  223   713.319  230.81  0.0772  0.4251
  224   713.609  228.17  0.0605  0.3583
  225   713.900  231.05  0.0638  0.2257
  226   714.191  242.02  0.0512  0.2109
  227   714.482  240.09  0.0736  0.3475
  228   714.773  233.11  0.0792  0.4804
  229   715.065  230.69  0.0652  0.2823
  230   715.356  229.25  0.0791  0.3838
  231   715.648  240.00  0.0649  0.2177
  232   715.941  245.56  0.0315  0.1011
  233   716.233  239.70  0.0659  0.3444
  234   716.526  233.23  0.0579  0.3924
  235   716.819  228.99  0.0607  0.2481
  236   717.112  234.69  0.2344  0.7212
  237   717.406  243.10  0.0482  0.1537
  238   717.700  242.41  0.0847  0.2463
  239   717.994  235.33  0.0930  0.5493
  240   718.288  227.58  0.0704  0.3730
  241   718.582  225.26  0.0572  0.2563
  242   718.877  225.18  0.0551  0.2449
  243   719.172  222.82  0.0446  0.2196
  244   719.467  221.20  0.0482  0.2182
  245   719.763  222.09  0.0483  0.2762
  246   720.058  224.71  0.0446  0.1910
  247   720.354  227.90  0.0441  0.2105
  248   720.651  229.80  0.0445  0.1673
  249   720.947  225.83  0.0293  0.0977
  250   721.244  225.79  0.0530  0.2141
  251   721.541  233.99  0.0599  0.2653
  252   721.838  243.63  0.0293  0.1057
  253   722.135  242.24  0.0505  0.1879
  254   722.433  239.36  0.0808  0.3221
  255   722.731  246.94  0.0414  0.1299
  256   723.029  249.35  0.0443  0.1339
  257   723.327  248.83  0.0301  0.1071
  258   723.626  242.17  0.0653  0.2093
  259   723.925  235.62  0.0692  0.2717
  260   724.224  246.36  0.0494  0.1699
  261   724.524  253.55  0.0371  0.1178
  262   724.823  252.89  0.0603  0.2457
  263   725.123  245.52  0.0599  0.2183
  264   725.423  233.33  0.1421  0.4070
  265   725.724  241.36  0.1144  0.4144
  266   726.025  252.39  0.0181  0.0611
  267   726.326  252.60  0.0308  0.1023
  268   726.627  246.07  0.0357  0.0920
  269   726.928  232.68  0.0507  0.1819
  270   727.230  236.50  0.0593  0.2433
  271   727.532  249.78  0.0231  0.0680
  272   727.834  252.21  0.0198  0.0546
  273   728.136  246.51  0.0299  0.0926
  274   728.439  232.53  0.0590  0.2823
  275   728.055  248.75  0.0288  0.0674
  276   728.357  236.01  0.0570  0.2267
  277   728.660  230.74  0.0532  0.3075
  278   728.963  240.86  0.0946  0.4602
  279   729.266  245.37  0.0903  0.2823
  280   729.569  245.12  0.0666  0.3343
  281   729.873  235.47  0.0976  0.2831
  282   730.177  229.90  0.1203  0.4967
  283   730.481  239.78  0.1748  0.6580
  284   730.785  245.21  0.0979  0.2897
  285   731.090  245.64  0.0842  0.2583
  286   731.395  237.15  0.0705  0.3001
  287   731.700  230.65  0.0638  0.3453
  288   732.005  241.10  0.0476  0.1817
  289   732.311  249.25  0.0254  0.0849
  290   732.617  249.82  0.0222  0.0835
  291   732.923  238.66  0.0688  0.2417
  292   733.230  231.19  0.0603  0.2851
  293   733.536  241.58  0.0300  0.1254
  294   733.843  249.64  0.0282  0.0900
  295   734.150  250.45  0.0302  0.1036
  296   734.458  238.96  0.0907  0.2611
  297   734.765  231.81  0.0545  0.2876
  298   735.073  242.50  0.0335  0.1322
  299   735.381  249.82  0.0475  0.1644
  300   735.690  250.22  0.0257  0.0790
  301   735.999  238.80  0.0726  0.2378
  302   736.308  232.37  0.0656  0.3030
  303   736.617  242.28  0.0465  0.1426
  304   736.926  248.52  0.0266  0.1002
  305   737.236  249.51  0.0237  0.0938
  306   737.546  239.05  0.0605  0.2800
  307   737.856  234.26  0.0878  0.2992
  308   738.167  245.94  0.0386  0.1029
  309   738.477  251.54  0.0212  0.0879
  310   738.788  250.25  0.0238  0.0848
  311   739.100  238.80  0.0709  0.3435
  312   739.411  235.70  0.0993  0.3534
  313   739.723  247.27  0.0367  0.1322
  314   740.035  250.63  0.0355  0.1225
  315   740.347  245.38  0.0707  0.2137
  316   740.660  233.80  0.0880  0.4116
  317   740.973  230.96  0.0540  0.3100
  318   741.286  232.29  0.1211  0.6317
  319   741.599  233.86  0.2787  1.6591
  320   741.913  241.45  0.1963  0.9827
  321   742.227  236.91  0.0785  0.3824
  322   742.541  241.87  0.0694  0.3238
  323   742.855  254.45  0.0398  0.1394
  324   743.170  257.31  0.0218  0.0854
  325   743.485  249.49  0.0620  0.3110
  326   743.800  238.56  0.1211  0.3241
  327   744.116  245.43  0.1175  0.3431
  328   744.431  255.31  0.0455  0.1691
  329   744.747  253.78  0.0372  0.1263
  330   745.064  245.95  0.0851  0.3036
  331   745.380  241.19  0.0686  0.3548
  332   745.697  253.33  0.0798  0.2714
  333   746.014  261.74  0.0259  0.0885
  334   746.331  259.07  0.0191  0.0586
  335   746.649  247.51  0.0733  0.3263
  336   746.967  244.73  0.0702  0.3411
  337   747.285  258.02  0.0813  0.2591
  338   747.603  262.72  0.0270  0.1082
  339   747.922  256.66  0.0379  0.1345
  340   748.241  245.03  0.0763  0.3917
  341   748.560  248.13  0.0688  0.3229
  342   748.879  260.73  0.0496  0.1865
  343   749.199  262.80  0.0174  0.0589
  344   749.519  254.87  0.0429  0.1861
  345   749.839  246.93  0.0920  0.3827
  346   750.160  254.23  0.0808  0.2868
  347   750.481  262.01  0.0220  0.0625
  348   750.802  261.03  0.0389  0.1241
  349   751.123  252.42  0.0785  0.2510
  350   751.445  250.07  0.0711  0.3515
  351   751.766  259.96  0.0594  0.1642
  352   752.089  262.68  0.0420  0.2533
  353   752.411  258.37  0.0581  0.3075
  354   752.734  251.48  0.0814  0.2810
  355   753.057  254.60  0.0623  0.2281
  356   753.380  262.87  0.0324  0.1062
  357   753.703  262.08  0.0561  0.2924
  358   754.027  254.66  0.0805  0.2396
  359   754.351  249.84  0.0732  0.2160
  360   754.676  254.62  0.0906  0.3851
  361   755.000  262.90  0.0483  0.2049
  362   755.325  264.16  0.0159  0.0574
  363   755.650  256.73  0.0721  0.2174
  364   755.976  255.29  0.0783  0.2815
  365   756.301  263.17  0.0321  0.1261
  366   756.627  266.34  0.0239  0.0861
  367   756.954  262.10  0.0416  0.1422
  368   757.280  255.84  0.0832  0.2436
  369   757.607  259.65  0.0639  0.2075
  370   757.934  266.49  0.0357  0.1677
  371   758.261  267.62  0.0105  0.0358
  372   758.589  262.57  0.0579  0.1772
  373   758.917  260.28  0.0754  0.2214
  374   759.245  265.43  0.0373  0.1219
  375   759.573  268.50  0.0074  0.0263
  376   759.902  266.68  0.0275  0.0974
  377   760.231  261.20  0.0829  0.2988
  378   760.561  262.72  0.0676  0.2037
  379   760.890  267.62  0.0140  0.0534
  380   761.220  268.66  0.0158  0.0565
  381   761.550  264.94  0.0530  0.2019
  382   761.881  262.56  0.0794  0.2822
  383   762.211  266.84  0.0294  0.1100
  384   762.542  268.76  0.0068  0.0288
  385   762.873  267.97  0.0293  0.1261
  386   763.205  263.93  0.0673  0.2394
  387   763.537  265.31  0.0502  0.2090
  388   763.869  268.46  0.0080  0.0275
  389   764.201  268.67  0.0075  0.0252
  390   764.534  266.16  0.0406  0.1903
  391   764.867  264.82  0.0540  0.2240
  392   765.200  267.84  0.0211  0.0922
  393   765.534  269.13  0.0060  0.0316
  394   765.867  268.54  0.0189  0.0820
  395   766.202  266.07  0.0305  0.1294
  396   766.536  267.21  0.0238  0.1011
  397   766.871  268.78  0.0193  0.0782
  398   767.205  268.03  0.0186  0.0801
  399   767.541  267.17  0.0223  0.0808
  400   767.876  267.05  0.0193  0.0718
  401   768.212  268.38  0.0134  0.0505
  402   768.548  267.56  0.0157  0.0789
  403   768.884  264.46  0.0214  0.0803
  404   769.221  265.27  0.0179  0.0785
  405   769.558  267.17  0.0154  0.0470
  406   769.895  266.14  0.0193  0.1261
  407   770.233  265.82  0.0220  0.1439
  408   770.570  268.19  0.0122  0.0470
  409   770.909  267.93  0.0178  0.0680
  410   771.247  267.90  0.0129  0.0458
  411   771.586  268.50  0.0112  0.0437
  412   771.925  269.14  0.0114  0.0444
  413   772.264  269.24  0.0102  0.0391
  414   772.603  268.67  0.0112  0.0429
  415   772.943  268.99  0.0106  0.0415
  416   773.283  269.33  0.0068  0.0290
  417   773.624  269.60  0.0097  0.0393
  418   773.964  268.80  0.0093  0.0325
  419   774.305  268.50  0.0127  0.0489
  420   774.647  269.17  0.0102  0.0405
  421   774.988  268.68  0.0141  0.0610
  422   775.330  265.51  0.0142  0.0612
  423   775.672  263.86  0.0188  0.0859
  424   776.015  267.44  0.0154  0.0785
  425   776.357  268.32  0.0127  0.0475
  426   776.700  264.85  0.0184  0.0729
  427   777.044  262.21  0.0220  0.0902
  428   777.387  265.93  0.0123  0.0519
  429   777.731  268.86  0.0094  0.0335
  430   778.076  269.39  0.0100  0.0402
  431   778.420  269.27  0.0087  0.0353
  432   778.765  268.11  0.0125  0.0458
  433   779.110  265.83  0.0171  0.0843
  434   779.455  266.37  0.0106  0.0391
  435   779.801  269.18  0.0060  0.0287
  436   780.147  269.52  0.0062  0.0234
  437   780.493  269.19  0.0066  0.0205
  438   780.840  269.66  0.0059  0.0214
  439   781.187  269.90  0.0073  0.0338
  440   781.534  269.96  0.0054  0.0217
  441   781.881  269.21  0.0074  0.0294
  442   789.263  270.34  0.0034  0.0171
  443   789.616  270.25  0.0036  0.0167
  444   789.970  270.12  0.0038  0.0180
  445   790.325  270.24  0.0029  0.0141
  446   790.680  270.13  0.0034  0.0151
  447   791.034  269.01  0.0175  0.0801
  448   791.390  261.29  0.0930  0.3349
  449   791.745  256.12  0.0727  0.2919
  450   792.101  261.25  0.0357  0.1543
  451   792.457  266.13  0.0178  0.0746
  452   792.814  268.34  0.0093  0.0327
  453   793.171  268.89  0.0079  0.0239
  454   793.528  267.28  0.0076  0.0288
  455   793.885  264.83  0.0162  0.0599
  456   794.243  267.03  0.0106  0.0441
  457   794.601  269.20  0.0078  0.0315
  458   794.960  268.94  0.0067  0.0318
  459   795.318  266.91  0.0102  0.0508
  460   795.677  261.38  0.0220  0.0918
  461   796.036  260.57  0.0184  0.0641
  462   796.396  266.37  0.0099  0.0513
  463   796.756  268.04  0.0067  0.0294
  464   797.116  267.81  0.0074  0.0400
  465   797.477  266.74  0.0106  0.0380
  466   797.837  266.69  0.0094  0.0467
  467   798.199  263.39  0.0256  0.0986
  468   798.560  257.65  0.0229  0.0902
  469   798.922  261.18  0.0184  0.0660
  470   799.284  266.95  0.0117  0.0473
  471   799.646  269.02  0.0068  0.0238
  472   800.009  268.94  0.0069  0.0245
  473   800.372  269.71  0.0052  0.0183
  474   800.736  270.32  0.0031  0.0113
  475   801.099  270.18  0.0038  0.0131
  476   801.463  269.35  0.0076  0.0277
  477   801.827  269.59  0.0071  0.0243
  478   802.192  270.31  0.0055  0.0202
  479   802.557  269.32  0.0078  0.0582
  480   802.922  266.25  0.0148  0.0628
  481   803.288  264.11  0.0186  0.0669
  482   803.654  265.67  0.0135  0.0472
  483   804.020  269.05  0.0075  0.0470
  484   804.386  269.72  0.0069  0.0269
  485   804.753  269.48  0.0081  0.0294
  486   805.120  270.31  0.0046  0.0154
  487   805.488  270.57  0.0051  0.0233
  488   805.856  269.69  0.0069  0.0389
  489   806.224  269.07  0.0090  0.0387
  490   806.592  269.84  0.0058  0.0273
  491   806.961  270.47  0.0039  0.0357
